=~=~=~=~=~=~=~=~=~=~=~= PuTTY log 2013.10.16 10:19:26 =~=~=~=~=~=~=~=~=~=~=~=

PHOTO RESEARCH - The Light Measurement People
---------------------------------------------
 Instrument       : PR-650         Average Cycles   : 3   
 Serial Number    : 60063509       Integration Time : 69 msec
 Measurement Date : 2013/09/03     Frequency        : DC
 Measurement Time : 01:34:47       File Num/Protect : 50  U
 Accessory        : MS-7

P H O T O M E T R I C   D A T A
-------------------------------
 Luminance      = 3.194e+02 footLamberts
                = 1.094e+03 candelas per square meter

C O L O R I M E T R I C   D A T A
---------------------------------
 CIE 1931:            X = 5.566e+02      x = .326 
( 2 degree observer)  Y = 1.094e+03      y = .641 
                      Z = 5.553e+01      z = 0.033 

 CIE/UCS 1960:  u = .130           v = .383 
 CIE/UCS 1976:  u'= .130           v'= .575 

 Correlated Color Temperature = not applicable.

R A D I O M E T R I C   D A T A
-------------------------------
 Integrated Radiance         : 1.815e+00 w/sr/m2
 Peak Wavelength  : 552 nm
 Peak Radiance               : 4.676e-02 w/sr/m2

S P E C T R A L   D A T A
-------------------------
 Corrected Spectral Radiance (w/sr/m2)

380 2.928e-05  460 2.824e-04  540 2.242e-02  620 1.217e-04  700 5.607e-05  
384 2.889e-05  464 3.318e-04  544 3.297e-02  624 1.213e-04  704 5.433e-05  
388 4.247e-05  468 3.835e-04  548 4.513e-02  628 1.083e-04  708 5.684e-05  
392 4.045e-05  472 3.876e-04  552 4.676e-02  632 1.191e-04  712 4.401e-05  
396 4.877e-05  476 3.570e-04  556 3.915e-02  636 1.102e-04  716 7.746e-05  
400 1.893e-05  480 3.608e-04  560 3.094e-02  640 1.064e-04  720 5.879e-05  
404 2.261e-05  484 4.621e-04  564 2.566e-02  644 7.671e-05  724 9.157e-05  
408 2.440e-05  488 7.553e-04  568 2.350e-02  648 7.694e-05  728 8.996e-05  
412 1.656e-05  492 1.376e-03  572 2.476e-02  652 8.184e-05  732 7.942e-05  
416 4.045e-05  496 2.584e-03  576 2.247e-02  656 7.468e-05  736 1.182e-04  
420 4.094e-05  500 4.564e-03  580 1.378e-02  660 6.794e-05  740 9.803e-05  
424 6.796e-05  504 6.429e-03  584 5.529e-03  664 6.417e-05  744 9.094e-05  
428 1.284e-04  508 8.090e-03  588 1.549e-03  668 5.435e-05  748 7.922e-05  
432 2.276e-04  512 9.446e-03  592 5.542e-04  672 6.208e-05  752 1.000e-04  
436 3.209e-04  516 1.042e-02  596 2.668e-04  676 7.691e-05  756 1.055e-04  
440 3.521e-04  520 1.098e-02  600 1.801e-04  680 4.696e-05  760 1.064e-04  
444 3.237e-04  524 1.114e-02  604 1.640e-04  684 8.360e-05  764 1.691e-04  
448 2.690e-04  528 1.182e-02  608 1.601e-04  688 5.759e-05  768 2.374e-04  
452 2.222e-04  532 1.374e-02  612 1.551e-04  692 3.589e-05  772 2.668e-04  
456 2.375e-04  536 1.711e-02  616 1.248e-04  696 5.198e-05  776 1.718e-04  
                                                            780 2.337e-04
