=~=~=~=~=~=~=~=~=~=~=~= PuTTY log 2013.10.16 09:13:22 =~=~=~=~=~=~=~=~=~=~=~=

PHOTO RESEARCH - The Light Measurement People
---------------------------------------------
 Instrument       : PR-650         Average Cycles   : 3   
 Serial Number    : 60063509       Integration Time : 69 msec
 Measurement Date : 2013/09/03     Frequency        : DC
 Measurement Time : 00:28:43       File Num/Protect : 13  U
 Accessory        : MS-7

P H O T O M E T R I C   D A T A
-------------------------------
 Luminance      = 3.410e+02 footLamberts
                = 1.168e+03 candelas per square meter

C O L O R I M E T R I C   D A T A
---------------------------------
 CIE 1931:            X = 5.957e+02      x = .327 
( 2 degree observer)  Y = 1.168e+03      y = .642 
                      Z = 5.492e+01      z = 0.030 

 CIE/UCS 1960:  u = .130           v = .383 
 CIE/UCS 1976:  u'= .130           v'= .575 

 Correlated Color Temperature = not applicable.

R A D I O M E T R I C   D A T A
-------------------------------
 Integrated Radiance         : 1.921e+00 w/sr/m2
 Peak Wavelength  : 552 nm
 Peak Radiance               : 4.967e-02 w/sr/m2

S P E C T R A L   D A T A
-------------------------
 Corrected Spectral Radiance (w/sr/m2)

380 2.711e-05  460 2.920e-04  540 2.435e-02  620 1.362e-04  700 7.315e-05  
384 4.191e-05  464 3.555e-04  544 3.535e-02  624 1.378e-04  704 8.080e-05  
388 3.480e-05  468 4.228e-04  548 4.779e-02  628 1.437e-04  708 6.179e-05  
392 2.266e-05  472 4.575e-04  552 4.967e-02  632 1.104e-04  712 5.459e-05  
396 2.785e-05  476 4.438e-04  556 4.196e-02  636 1.002e-04  716 5.779e-05  
400 2.106e-05  480 3.639e-04  560 3.333e-02  640 1.091e-04  720 6.145e-05  
404 3.450e-05  484 3.786e-04  564 2.778e-02  644 8.348e-05  724 7.526e-05  
408 3.509e-05  488 5.162e-04  568 2.565e-02  648 7.357e-05  728 7.385e-05  
412 3.926e-05  492 8.895e-04  572 2.683e-02  652 8.220e-05  732 1.191e-04  
416 3.560e-05  496 1.713e-03  576 2.390e-02  656 8.883e-05  736 8.074e-05  
420 3.113e-05  500 3.397e-03  580 1.434e-02  660 8.220e-05  740 1.157e-04  
424 6.509e-05  504 5.485e-03  584 5.633e-03  664 9.552e-05  744 1.439e-04  
428 1.379e-04  508 7.680e-03  588 1.557e-03  668 8.572e-05  748 1.381e-04  
432 2.357e-04  512 9.533e-03  592 5.520e-04  672 9.735e-05  752 8.655e-05  
436 3.243e-04  516 1.090e-02  596 2.809e-04  676 6.601e-05  756 1.599e-04  
440 3.638e-04  520 1.179e-02  600 1.916e-04  680 6.543e-05  760 1.182e-04  
444 3.778e-04  524 1.219e-02  604 1.700e-04  684 6.125e-05  764 1.191e-04  
448 3.124e-04  528 1.302e-02  608 1.684e-04  688 4.088e-05  768 1.316e-04  
452 2.478e-04  532 1.511e-02  612 1.630e-04  692 6.358e-05  772 1.458e-04  
456 2.380e-04  536 1.870e-02  616 1.348e-04  696 5.949e-05  776 1.654e-04  
                                                            780 1.848e-04
