=~=~=~=~=~=~=~=~=~=~=~= PuTTY log 2013.10.16 10:18:18 =~=~=~=~=~=~=~=~=~=~=~=

PHOTO RESEARCH - The Light Measurement People
---------------------------------------------
 Instrument       : PR-650         Average Cycles   : 3   
 Serial Number    : 60063509       Integration Time : 329 msec
 Measurement Date : 2013/09/03     Frequency        : DC
 Measurement Time : 01:33:38       File Num/Protect : 49  U
 Accessory        : MS-7

P H O T O M E T R I C   D A T A
-------------------------------
 Luminance      = 6.270e+01 footLamberts
                = 2.148e+02 candelas per square meter

C O L O R I M E T R I C   D A T A
---------------------------------
 CIE 1931:            X = 3.691e+02      x = .624 
( 2 degree observer)  Y = 2.148e+02      y = .363 
                      Z = 7.547e+00      z = 0.013 

 CIE/UCS 1960:  u = .408           v = .357 
 CIE/UCS 1976:  u'= .408           v'= .535 

 Correlated Color Temperature = not applicable.

R A D I O M E T R I C   D A T A
-------------------------------
 Integrated Radiance         : 7.782e-01 w/sr/m2
 Peak Wavelength  : 600 nm
 Peak Radiance               : 1.242e-02 w/sr/m2

S P E C T R A L   D A T A
-------------------------
 Corrected Spectral Radiance (w/sr/m2)

380 1.104e-05  460 9.750e-05  540 1.468e-04  620 7.958e-03  700 2.460e-04  
384 8.109e-06  464 1.050e-04  544 2.269e-04  624 7.333e-03  704 1.752e-04  
388 7.824e-06  468 1.133e-04  548 3.111e-04  628 6.892e-03  708 1.340e-04  
392 7.334e-06  472 1.183e-04  552 3.210e-04  632 6.672e-03  712 1.006e-04  
396 5.164e-06  476 1.054e-04  556 2.792e-04  636 6.566e-03  716 8.318e-05  
400 5.120e-06  480 9.443e-05  560 2.496e-04  640 6.461e-03  720 7.280e-05  
404 3.207e-06  484 8.351e-05  564 2.792e-04  644 6.297e-03  724 7.343e-05  
408 3.178e-06  488 7.511e-05  568 4.513e-04  648 6.041e-03  728 6.913e-05  
412 3.198e-06  492 5.962e-05  572 9.644e-04  652 5.769e-03  732 6.513e-05  
416 4.984e-06  496 5.425e-05  576 1.966e-03  656 5.432e-03  736 5.260e-05  
420 3.298e-06  500 5.022e-05  580 3.397e-03  660 5.140e-03  740 4.362e-05  
424 1.610e-05  504 5.123e-05  584 5.232e-03  664 4.772e-03  744 5.859e-05  
428 5.676e-05  508 5.485e-05  588 7.856e-03  668 4.361e-03  748 6.288e-05  
432 1.241e-04  512 5.666e-05  592 1.026e-02  672 3.814e-03  752 4.935e-05  
436 1.738e-04  516 5.399e-05  596 1.196e-02  676 3.129e-03  756 6.084e-05  
440 1.792e-04  520 5.403e-05  600 1.242e-02  680 2.334e-03  760 4.254e-05  
444 1.476e-04  524 5.674e-05  604 1.190e-02  684 1.577e-03  764 5.049e-05  
448 1.061e-04  528 6.494e-05  608 1.087e-02  688 1.035e-03  768 5.582e-05  
452 9.349e-05  532 8.387e-05  612 9.754e-03  692 6.515e-04  772 5.415e-05  
456 9.240e-05  536 1.092e-04  616 8.755e-03  696 3.991e-04  776 8.382e-05  
                                                            780 7.820e-05
