=~=~=~=~=~=~=~=~=~=~=~= PuTTY log 2013.10.16 09:12:33 =~=~=~=~=~=~=~=~=~=~=~=

PHOTO RESEARCH - The Light Measurement People
---------------------------------------------
 Instrument       : PR-650         Average Cycles   : 3   
 Serial Number    : 60063509       Integration Time : 329 msec
 Measurement Date : 2013/09/03     Frequency        : DC
 Measurement Time : 00:27:53       File Num/Protect : 12  U
 Accessory        : MS-7

P H O T O M E T R I C   D A T A
-------------------------------
 Luminance      = 6.538e+01 footLamberts
                = 2.240e+02 candelas per square meter

C O L O R I M E T R I C   D A T A
---------------------------------
 CIE 1931:            X = 3.844e+02      x = .624 
( 2 degree observer)  Y = 2.240e+02      y = .363 
                      Z = 7.867e+00      z = 0.013 

 CIE/UCS 1960:  u = .408           v = .357 
 CIE/UCS 1976:  u'= .408           v'= .535 

 Correlated Color Temperature = not applicable.

R A D I O M E T R I C   D A T A
-------------------------------
 Integrated Radiance         : 8.165e-01 w/sr/m2
 Peak Wavelength  : 600 nm
 Peak Radiance               : 1.289e-02 w/sr/m2

S P E C T R A L   D A T A
-------------------------
 Corrected Spectral Radiance (w/sr/m2)

380 1.296e-05  460 1.122e-04  540 1.588e-04  620 8.479e-03  700 3.154e-04  
384 6.929e-06  464 1.142e-04  544 2.421e-04  624 8.066e-03  704 2.311e-04  
388 5.086e-06  468 1.234e-04  548 3.270e-04  628 7.648e-03  708 1.836e-04  
392 8.757e-06  472 1.280e-04  552 3.361e-04  632 7.244e-03  712 1.550e-04  
396 7.757e-06  476 1.118e-04  556 2.944e-04  636 6.873e-03  716 1.270e-04  
400 3.462e-06  480 9.765e-05  560 2.690e-04  640 6.514e-03  720 9.213e-05  
404 3.736e-06  484 8.484e-05  564 2.941e-04  644 6.219e-03  724 8.168e-05  
408 4.631e-06  488 7.133e-05  568 4.743e-04  648 5.988e-03  728 7.624e-05  
412 5.440e-06  492 6.146e-05  572 9.921e-04  652 5.858e-03  732 6.249e-05  
416 4.626e-06  496 5.265e-05  576 2.004e-03  656 5.719e-03  736 7.155e-05  
420 5.991e-06  500 5.289e-05  580 3.496e-03  660 5.601e-03  740 7.281e-05  
424 1.733e-05  504 5.531e-05  584 5.490e-03  664 5.335e-03  744 6.804e-05  
428 5.981e-05  508 6.039e-05  588 8.400e-03  668 4.896e-03  748 6.016e-05  
432 1.302e-04  512 6.146e-05  592 1.104e-02  672 4.245e-03  752 6.975e-05  
436 1.802e-04  516 5.759e-05  596 1.273e-02  676 3.417e-03  756 6.018e-05  
440 1.812e-04  520 5.499e-05  600 1.289e-02  680 2.476e-03  760 6.449e-05  
444 1.449e-04  524 5.714e-05  604 1.197e-02  684 1.647e-03  764 6.156e-05  
448 1.056e-04  528 6.631e-05  608 1.073e-02  688 1.087e-03  768 4.979e-05  
452 9.191e-05  532 8.455e-05  612 9.712e-03  692 7.056e-04  772 4.627e-05  
456 1.003e-04  536 1.145e-04  616 8.979e-03  696 4.609e-04  776 8.591e-05  
                                                            780 7.569e-05
